File: examples/usgs_splib07/ASCIIdata/ASCIIdata_splib07a/ChapterM_Minerals/splib07a_Chalcedony_CU91-6A_XRD_NIC4aa_RREF.txt
 splib07a Record=2504: Chalcedony CU91-6A XRD       NIC4aa RREF
-1.23e+34
-1.23e+34
-1.23e+34
-1.23e+34
-1.23e+34
-1.23e+34
-1.23e+34
-1.23e+34
-1.23e+34
-1.23e+34
-1.23e+34
-1.23e+34
-1.23e+34
-1.23e+34
-1.23e+34
-1.23e+34
-1.23e+34
-1.23e+34
-1.23e+34
-1.23e+34
-1.23e+34
-1.23e+34
-1.23e+34
-1.23e+34
-1.23e+34
-1.23e+34
-1.23e+34
-1.23e+34
-1.23e+34
-1.23e+34
-1.23e+34
-1.23e+34
-1.23e+34
-1.23e+34
-1.23e+34
-1.23e+34
-1.23e+34
-1.23e+34
-1.23e+34
-1.23e+34
-1.23e+34
-1.23e+34
-1.23e+34
-1.23e+34
-1.23e+34
-1.23e+34
-1.23e+34
-1.23e+34
-1.23e+34
-1.23e+34
-1.23e+34
-1.23e+34
-1.23e+34
-1.23e+34
-1.23e+34
-1.23e+34
-1.23e+34
-1.23e+34
-1.23e+34
-1.23e+34
-1.23e+34
-1.23e+34
-1.23e+34
-1.23e+34
-1.23e+34
-1.23e+34
-1.23e+34
-1.23e+34
-1.23e+34
-1.23e+34
-1.23e+34
-1.23e+34
-1.23e+34
-1.23e+34
-1.23e+34
-1.23e+34
-1.23e+34
-1.23e+34
-1.23e+34
-1.23e+34
-1.23e+34
-1.23e+34
-1.23e+34
-1.23e+34
-1.23e+34
-1.23e+34
-1.23e+34
-1.23e+34
 0.44093
 0.442884
 0.444838
 0.446835
 0.449267
 0.451177
 0.45274
 0.453999
 0.455085
 0.456561
 0.458081
 0.459948
 0.462076
 0.463639
 0.465028
 0.465983
 0.466722
 0.467981
 0.468849
 0.470412
 0.471932
 0.473408
 0.474407
 0.474971
 0.475275
 0.47584
 0.476621
 0.477446
 0.477186
 0.476404
 0.473104
 0.471454
 0.471671
 0.472583
 0.474146
 0.47584
 0.477924
 0.479661
 0.481007
 0.482005
 0.482179
 0.482222
 0.482483
 0.482917
 0.483699
 0.484176
 0.484524
 0.48422
 0.483525
 0.482266
 0.480572
 0.478402
 0.47445
 0.468936
 0.468675
 0.469804
 0.469631
 0.468806
 0.468893
 0.468979
 0.469804
 0.47115
 0.471758
 0.471628
 0.470977
 0.46937
 0.467069
 0.464029
 0.460556
 0.457256
 0.454303
 0.451959
 0.448919
 0.445837
 0.442841
 0.440192
 0.438325
 0.434157
 0.431117
 0.414921
 0.376104
 0.320353
 0.254485
 0.201512
 0.187791
 0.194087
 0.191178
 0.180584
 0.170641
 0.166603
 0.166472
 0.168296
 0.174201
 0.182277
 0.189919
 0.198169
 0.207504
 0.218012
 0.229779
 0.241763
 0.253703
 0.265644
 0.27741
 0.289221
 0.29886
 0.304895
 0.310279
 0.325954
 0.331295
 0.344798
 0.351572
 0.357303
 0.362079
 0.363512
 0.364337
 0.369244
 0.369678
 0.369331
 0.371067
 0.365987
 0.365683
 0.365206
 0.357129
 0.348532
 0.341629
 0.336201
 0.33416
 0.306068
 0.281405
 0.309541
 0.327691
 0.305633
 0.302333
 0.289003
 0.244194
 0.138206
 0.0940043
 0.102037
 0.110157
 0.0662589
 0.0436805
 0.096045
 0.0788073
 0.0744653
 0.120187
 0.0889241
 0.0489778
 0.0575315
 0.0330426
 0.0304374
 0.0551868
 0.0290914
 0.0235771
 0.0215797
 0.0165864
 0.00777218
 0.0015197
-0.0004342
 0.0028223
 0.0131128
 0.0346057
 0.0462857
 0.0246191
 0.0157615
 0.0206679
 0.0237942
 0.0283533
 0.0316966
 0.0432897
 0.0498462
 0.0550131
 0.0570973
 0.0572276
 0.0518435
 0.0263994
 0.0315229
 0.049933
 0.0608314
 0.0399898
 0.0646524
 0.0686036
 0.071339
 0.0707746
 0.0826717
 0.0984765
 0.120534
 0.136382
 0.15362
-1.23e+34
-1.23e+34
-1.23e+34
-1.23e+34
-1.23e+34
-1.23e+34
-1.23e+34
-1.23e+34
-1.23e+34
-1.23e+34
-1.23e+34
-1.23e+34
-1.23e+34